03  1   1   1
Liquid Pressure (MPa), (MPa)
Temperature (deg C), (deg C)
Saturation, (no dim)
0000000001   3.20187946    207.397323    1.00000000
0000000002   3.20272981    204.548544    1.00000000
0000000003   3.20974253    195.962776    1.00000000
0000000004   3.22440067    184.878695    1.00000000
0000000005   3.24694946    175.134130    1.00000000
0000000006   3.27663207    168.024058    1.00000000
0000000007   3.31202988    163.603644    1.00000000
0000000008   3.35159888    161.313122    1.00000000
0000000009   3.39401843    160.370677    1.00000000
0000000010   3.43830917    160.083591    1.00000000
0000000011   3.48379682    160.022656    1.00000000
0000000012   3.53001918    160.010372    1.00000000
0000000013   3.57664082    160.003527    1.00000000
0000000014   3.60000000    160.000245    1.00000000
0000000015   3.20104043    209.154247    1.00000000
0000000016   3.20188773    206.237099    1.00000000
0000000017   3.20888140    197.451067    1.00000000
0000000018   3.22355284    186.120573    1.00000000
0000000019   3.24620035    176.136980    1.00000000
0000000020   3.27602892    168.761648    1.00000000
0000000021   3.31157499    164.068348    1.00000000
0000000022   3.35127240    161.550549    1.00000000
0000000023   3.39379416    160.462924    1.00000000
0000000024   3.43816178    160.108449    1.00000000
0000000025   3.48370558    160.026752    1.00000000
0000000026   3.52996969    160.010782    1.00000000
0000000027   3.57662497    160.003554    1.00000000
0000000028   3.60000000    160.000247    1.00000000
0000000029   3.19436660    215.328757    1.00000000
0000000030   3.19518529    212.185978    1.00000000
0000000031   3.20199298    202.643548    1.00000000
0000000032   3.21673804    190.506561    1.00000000
0000000033   3.24021379    179.948758    1.00000000
0000000034   3.27125015    171.843145    1.00000000
0000000035   3.30799437    166.208631    1.00000000
0000000036   3.34870962    162.762355    1.00000000
0000000037   3.39203299    160.992247    1.00000000
0000000038   3.43700256    160.273310    1.00000000
0000000039   3.48298720    160.059299    1.00000000
0000000040   3.52957990    160.014417    1.00000000
0000000041   3.57650018    160.003797    1.00000000
0000000042   3.59999999    160.000265    1.00000000
0000000043   3.18141788    220.902212    1.00000000
0000000044   3.18212350    217.645550    1.00000000
0000000045   3.18813413    207.073089    1.00000000
0000000046   3.20254844    193.780458    1.00000000
0000000047   3.22810846    183.043138    1.00000000
0000000048   3.26199807    174.704473    1.00000000
0000000049   3.30130053    168.477894    1.00000000
0000000050   3.34401298    164.239408    1.00000000
0000000051   3.38882627    161.751753    1.00000000
0000000052   3.43488986    160.563503    1.00000000
0000000053   3.48167481    160.133438    1.00000000
0000000054   3.52886697    160.025117    1.00000000
0000000055   3.57627185    160.004587    1.00000000
0000000056   3.59999999    160.000326    1.00000000
0000000057   3.16320439    226.049268    1.00000000
0000000058   3.16356508    223.213723    1.00000000
0000000059   3.16697646    211.388594    1.00000000
0000000060   3.17874259    195.496423    1.00000000
0000000061   3.20931786    185.107719    1.00000000
0000000062   3.24881219    177.082101    1.00000000
0000000063   3.29231620    170.639055    1.00000000
0000000064   3.33791218    165.815816    1.00000000
0000000065   3.38471196    162.672263    1.00000000
0000000066   3.43218176    160.979016    1.00000000
0000000067   3.47998790    160.267986    1.00000000
0000000068   3.52794864    160.052119    1.00000000
0000000069   3.57597760    160.006796    1.00000000
0000000070   3.59999999    160.000502    1.00000000
0000000071   3.14251566    230.468501    1.00000000
0000000072   3.14204061    228.904403    1.00000000
0000000073   3.13864407    219.980082    1.00000000
0000000074   3.13781292    195.576602    1.00000000
0000000075   3.18340801    186.166710    1.00000000
0000000076   3.23328722    178.993354    1.00000000
0000000077   3.28258443    172.604747    1.00000000
0000000078   3.33151955    167.346036    1.00000000
0000000079   3.38042882    163.624388    1.00000000
0000000080   3.42934955    161.443257    1.00000000
0000000081   3.47821151    160.433049    1.00000000
0000000082   3.52697680    160.088713    1.00000000
0000000083   3.57566567    160.009866    1.00000000
0000000084   3.59999999    160.000745    1.00000000
0000000085   3.12597994    233.747934    1.00000000
0000000086   3.12424002    232.994518    1.00000000
0000000087   3.10861418    228.030035    1.00000000
0000000088   3.05238445    202.831989    1.00000000
0000000089   3.15514574    187.801803    1.00000000
0000000090   3.22016588    180.909149    1.00000000
0000000091   3.27474609    174.465462    1.00000000
0000000092   3.32625673    168.749311    1.00000000
0000000093   3.37678944    164.500668    1.00000000
0000000094   3.42688100    161.884291    1.00000000
0000000095   3.47663613    160.598791    1.00000000
0000000096   3.52610616    160.128541    1.00000000
0000000097   3.57538523    160.013578    1.00000000
0000000098   3.59999999    160.001043    1.00000000
0000000099   3.12356831    235.487438   0.821106352
0000000100   3.12289408    235.475637   0.891272660
0000000101   3.11966477    232.278998    1.00000000
0000000102   3.11922392    204.855287    1.00000000
0000000103   3.16675757    193.274394    1.00000000
0000000104   3.21944790    184.236988    1.00000000
0000000105   3.27166645    176.374940    1.00000000
0000000106   3.32323730    169.942852    1.00000000
0000000107   3.37438023    165.206813    1.00000000
0000000108   3.42513886    162.241213    1.00000000
0000000109   3.47548888    160.738022    1.00000000
0000000110   3.52546233    160.164252    1.00000000
0000000111   3.57517680    160.017232    1.00000000
0000000112   3.59999999    160.001337    1.00000000
0000000113   3.12561386    235.523230   0.773519124
0000000114   3.12579142    234.749797    1.00000000
0000000115   3.12829611    226.319282    1.00000000
0000000116   3.14013354    208.497329    1.00000000
0000000117   3.17537727    196.084242    1.00000000
0000000118   3.22129069    186.053202    1.00000000
0000000119   3.27105527    177.532544    1.00000000
0000000120   3.32203472    170.639469    1.00000000
0000000121   3.37324550    165.608691    1.00000000
0000000122   3.42426154    162.443488    1.00000000
0000000123   3.47489312    160.817780    1.00000000
0000000124   3.52512316    160.185146    1.00000000
0000000125   3.57506650    160.019427    1.00000000
0000000126   3.60000000    160.001514    1.00000000
0000000127   3.12589990    235.528234   0.826890993
0000000128   3.12620729    234.492023    1.00000000
0000000129   3.12942275    225.910144    1.00000000
0000000130   3.14251407    209.091273    1.00000000
0000000131   3.17649495    196.495781    1.00000000
0000000132   3.22156839    186.308892    1.00000000
0000000133   3.27100110    177.708248    1.00000000
0000000134   3.32189219    170.754915    1.00000000
0000000135   3.37310557    165.674881    1.00000000
0000000136   3.42415182    162.475540    1.00000000
0000000137   3.47481817    160.829836    1.00000000
0000000138   3.52508038    160.188160    1.00000000
0000000139   3.57505257    160.019731    1.00000000
0000000140   3.60000000    160.001538    1.00000000
